CV measurement
CV Measurement
:Program Version
13.8.2003 Moll, 4.2008 Fahrer, 6.2011 Gabrysch, 7.2019 Mateu
:start
09/07/2024 11:35:17
:stop
09/07/2024 11:37:39
:elapsed[s]
141.9
:tester
Anton
:environment
Probe Station (28-2-019)
:comment

:temperature[C]
-20.0
:ToolID
1102
:GuardRingConnection
1
:Region
0
:Instruments
V source: Keithley 2410
- integration time [ms]: 20.0
- internal averaging: 5
- compliance [A or V]: 4.000E-5
LCR meter: Agilent E4980A
- Frequency: 5000 Hz
- Signal level: 250 mV
- Averaging: 5
:LCR open correction: C[F] , G[S]
5.068E-11, 1.907E-9
:ramp up step [V], delay [s], down step [V], delay[s]
5.0, 0.1, 5.0, 0.5
:set voltage start [V], voltage stop [V], number of steps
-0.0, -30.0, 31
:measured voltage start [V], voltage stop [V], number of steps
-5.0, -80.0, 46
:step mode
from file
:Sample
PPS_TILGAD_6 152 4 C1-V3-1TRB
:Producer
FBK
:Run

:Wafer

:TREC

:Area[cm-2]

:Thickness[um]

:Support_Wafer_Thickness[um]

:Resistivity[ohm.cm]

:Sample_comment
PPS 2x2 TI non-irrad
Pixel 1 0
:Material
p EPI
:Irradiation(Location,Fluence/Dose,Units,Particle,Date)
,,particles/cm2,,08/07/2024
:Annealing_history(time[min],Temp[C],Date)
:legend
V_detector [V]	Capacitance [F]	Conductivity [S]	Bias [V]	Current Power Supply [A]
BEGIN
-5.000000E+0	6.854333E-14	-6.800543E-10	-5.000000E+0	-3.225877E-7
-6.000000E+0	6.714333E-14	-7.139543E-10	-6.000000E+0	-3.244309E-7
-7.000000E+0	6.784333E-14	-9.245473E-10	-7.000000E+0	-3.316234E-7
-8.000000E+0	6.744333E-14	-9.920023E-10	-8.000000E+0	-3.357926E-7
-9.000000E+0	6.654333E-14	-8.505443E-10	-9.000000E+0	-3.418787E-7
-1.000000E+1	6.834333E-14	-8.515443E-10	-1.000000E+1	-3.480363E-7
-1.100000E+1	6.864333E-14	-8.523643E-10	-1.100000E+1	-3.529538E-7
-1.200000E+1	6.854333E-14	-8.944743E-10	-1.200000E+1	-3.555364E-7
-1.300000E+1	6.774333E-14	-7.274043E-10	-1.300000E+1	-3.634623E-7
-1.400000E+1	6.794333E-14	-8.059643E-10	-1.400000E+1	-3.696657E-7
-1.500000E+1	6.834333E-14	-9.993773E-10	-1.500000E+1	-3.745162E-7
-1.600000E+1	6.854333E-14	-7.946843E-10	-1.600000E+1	-3.803694E-7
-1.700000E+1	6.864333E-14	-7.164843E-10	-1.700000E+1	-3.868958E-7
-1.800000E+1	6.924333E-14	-1.058203E-9	-1.800000E+1	-3.925697E-7
-1.900000E+1	6.874333E-14	-8.317243E-10	-1.900000E+1	-4.003603E-7
-2.000000E+1	6.914333E-14	-8.230843E-10	-2.000000E+1	-4.043381E-7
-2.050000E+1	6.864333E-14	-1.037130E-9	-2.050000E+1	-4.066941E-7
-2.100000E+1	6.894333E-14	-9.551913E-10	-2.100000E+1	-4.095144E-7
-2.150000E+1	6.894333E-14	-1.016398E-9	-2.150000E+1	-4.716998E-7
-2.200000E+1	6.874333E-14	-1.057352E-9	-2.200000E+1	-4.760604E-7
-2.250000E+1	6.914333E-14	-1.008915E-9	-2.250000E+1	-4.792677E-7
-2.300000E+1	6.884333E-14	-9.803993E-10	-2.300000E+1	-4.788101E-7
-2.350000E+1	6.814333E-14	-1.000885E-9	-2.350000E+1	-4.849780E-7
-2.400000E+1	6.874333E-14	-9.329003E-10	-2.400000E+1	-4.872562E-7
-2.450000E+1	6.874333E-14	-1.021265E-9	-2.450000E+1	-4.907914E-7
-2.500000E+1	6.884333E-14	-9.085073E-10	-2.500000E+1	-4.954796E-7
-2.550000E+1	6.894333E-14	-1.038211E-9	-2.550000E+1	-4.960283E-7
-2.600000E+1	6.804333E-14	-1.055148E-9	-2.600000E+1	-5.008130E-7
-2.650000E+1	6.844333E-14	-1.041039E-9	-2.650000E+1	-5.029989E-7
-2.700000E+1	6.954333E-14	-1.002921E-9	-2.700000E+1	-5.033905E-7
-2.750000E+1	6.864333E-14	-9.797063E-10	-2.750000E+1	-5.100536E-7
-2.800000E+1	6.604333E-14	3.361057E-10	-2.800000E+1	-5.100587E-7
-2.850000E+1	6.954333E-14	6.490257E-10	-2.850000E+1	-5.178007E-7
-2.900000E+1	6.904333E-14	2.111567E-11	-2.900000E+1	-5.168291E-7
-2.950000E+1	6.944333E-14	-3.205743E-10	-2.950000E+1	-5.203494E-7
-3.000000E+1	6.964333E-14	-8.710143E-10	-3.000000E+1	-5.266553E-7
-3.500000E+1	6.984333E-14	-7.140843E-10	-3.500000E+1	-5.614971E-7
-4.000000E+1	6.894333E-14	-6.942143E-10	-4.000000E+1	-5.961803E-7
-4.500000E+1	6.964333E-14	-7.717943E-10	-4.500000E+1	-6.244418E-7
-5.000000E+1	6.964333E-14	-3.377243E-10	-5.000000E+1	-6.585178E-7
-5.500000E+1	6.954333E-14	-6.107843E-10	-5.500000E+1	-6.887787E-7
-6.000000E+1	7.124333E-14	-6.189443E-10	-6.000000E+1	-9.041474E-7
-6.500000E+1	7.054333E-14	-6.123143E-10	-6.500000E+1	-1.935561E-6
-7.000000E+1	7.134333E-14	-6.609043E-10	-7.000000E+1	-5.145518E-6
-7.500000E+1	7.084333E-14	-5.736343E-10	-7.500000E+1	-8.909457E-6
-8.000000E+1	6.774333E-14	-1.532243E-10	-8.000000E+1	-2.071147E-5
END
