CV measurement
CV Measurement
:Program Version
13.8.2003 Moll, 4.2008 Fahrer, 6.2011 Gabrysch, 7.2019 Mateu
:start
09/07/2024 13:07:44
:stop
09/07/2024 13:10:05
:elapsed[s]
141.3
:tester
Anton
:environment
Probe Station (28-2-019)
:comment

:temperature[C]
-20.0
:ToolID
1102
:GuardRingConnection
1
:Region
0
:Instruments
V source: Keithley 2410
- integration time [ms]: 20.0
- internal averaging: 5
- compliance [A or V]: 4.000E-5
LCR meter: Agilent E4980A
- Frequency: 10000 Hz
- Signal level: 250 mV
- Averaging: 5
:LCR open correction: C[F] , G[S]
5.068E-11, 1.907E-9
:ramp up step [V], delay [s], down step [V], delay[s]
5.0, 0.1, 5.0, 0.5
:set voltage start [V], voltage stop [V], number of steps
-0.0, -30.0, 31
:measured voltage start [V], voltage stop [V], number of steps
-5.0, -90.0, 47
:step mode
from file
:Sample
PPS_TILGAD_6 152 4 C1-V3-1TRB
:Producer
FBK
:Run

:Wafer

:TREC

:Area[cm-2]

:Thickness[um]

:Support_Wafer_Thickness[um]

:Resistivity[ohm.cm]

:Sample_comment
PPS 2x2 TI non-irrad
Pixel 1 0
:Material
p EPI
:Irradiation(Location,Fluence/Dose,Units,Particle,Date)
,,particles/cm2,,08/07/2024
:Annealing_history(time[min],Temp[C],Date)
:legend
V_detector [V]	Capacitance [F]	Conductivity [S]	Bias [V]	Current Power Supply [A]
BEGIN
-5.000000E+0	4.981143E-12	3.237926E-9	-5.000000E+0	-3.198784E-7
-6.000000E+0	4.929443E-12	9.199857E-10	-6.000000E+0	-3.234993E-7
-7.000000E+0	4.882843E-12	7.277657E-10	-7.000000E+0	-3.280433E-7
-8.000000E+0	4.840943E-12	6.985057E-10	-8.000000E+0	-3.350945E-7
-9.000000E+0	4.814443E-12	7.861957E-10	-9.000000E+0	-3.414634E-7
-1.000000E+1	4.796743E-12	7.802457E-10	-1.000000E+1	-3.444092E-7
-1.100000E+1	4.784143E-12	9.193457E-10	-1.100000E+1	-3.492776E-7
-1.200000E+1	4.773443E-12	1.020906E-9	-1.200000E+1	-3.568247E-7
-1.300000E+1	4.765343E-12	1.200436E-9	-1.300000E+1	-3.630528E-7
-1.400000E+1	4.758843E-12	1.312326E-9	-1.400000E+1	-3.690755E-7
-1.500000E+1	4.751343E-12	1.530496E-9	-1.500000E+1	-3.730879E-7
-1.600000E+1	4.744643E-12	1.677586E-9	-1.600000E+1	-3.796408E-7
-1.700000E+1	4.737243E-12	1.957886E-9	-1.700000E+1	-3.880132E-7
-1.800000E+1	4.728643E-12	2.162726E-9	-1.800000E+1	-3.923585E-7
-1.900000E+1	4.719043E-12	2.516926E-9	-1.900000E+1	-3.983351E-7
-2.000000E+1	4.705943E-12	2.803026E-9	-2.000000E+1	-4.046818E-7
-2.050000E+1	4.695443E-12	3.011266E-9	-2.050000E+1	-4.051291E-7
-2.100000E+1	4.684143E-12	3.128506E-9	-2.100000E+1	-4.086520E-7
-2.150000E+1	4.674643E-12	3.210726E-9	-2.150000E+1	-4.699243E-7
-2.200000E+1	4.664043E-12	3.260446E-9	-2.200000E+1	-4.757677E-7
-2.250000E+1	4.655443E-12	3.211896E-9	-2.250000E+1	-4.781216E-7
-2.300000E+1	4.644843E-12	3.175566E-9	-2.300000E+1	-4.807360E-7
-2.350000E+1	4.634543E-12	3.018496E-9	-2.350000E+1	-4.823244E-7
-2.400000E+1	4.622443E-12	2.859226E-9	-2.400000E+1	-4.883508E-7
-2.450000E+1	4.607043E-12	2.673396E-9	-2.450000E+1	-4.891297E-7
-2.500000E+1	4.580643E-12	2.465716E-9	-2.500000E+1	-4.921693E-7
-2.550000E+1	4.525543E-12	2.232936E-9	-2.550000E+1	-4.930487E-7
-2.600000E+1	4.519043E-12	2.087696E-9	-2.600000E+1	-5.000825E-7
-2.650000E+1	4.514343E-12	1.819346E-9	-2.650000E+1	-5.015837E-7
-2.700000E+1	4.509443E-12	1.638116E-9	-2.700000E+1	-5.043597E-7
-2.750000E+1	4.505443E-12	1.556826E-9	-2.750000E+1	-5.031110E-7
-2.800000E+1	4.502443E-12	1.450666E-9	-2.800000E+1	-5.100696E-7
-2.850000E+1	4.499043E-12	1.208576E-9	-2.850000E+1	-5.132035E-7
-2.900000E+1	4.496243E-12	1.195596E-9	-2.900000E+1	-5.160277E-7
-2.950000E+1	4.493643E-12	9.695857E-10	-2.950000E+1	-5.175419E-7
-3.000000E+1	4.492243E-12	9.182957E-10	-3.000000E+1	-5.241836E-7
-3.500000E+1	4.480143E-12	6.387557E-10	-3.500000E+1	-5.561798E-7
-4.000000E+1	4.470943E-12	2.998957E-10	-4.000000E+1	-5.933712E-7
-4.500000E+1	4.463443E-12	1.636657E-10	-4.500000E+1	-6.212205E-7
-5.000000E+1	4.457643E-12	1.234157E-10	-5.000000E+1	-6.495601E-7
-5.500000E+1	4.452643E-12	1.768957E-10	-5.500000E+1	-6.839747E-7
-6.000000E+1	4.479643E-12	1.655216E-9	-6.000000E+1	-9.066471E-7
-6.500000E+1	4.444743E-12	1.025457E-10	-6.500000E+1	-1.847687E-6
-7.000000E+1	4.394543E-12	-2.225643E-10	-7.000000E+1	-5.063335E-6
-7.500000E+1	4.385043E-12	-3.502343E-10	-7.500000E+1	-8.731822E-6
-8.000000E+1	4.359543E-12	-3.665943E-10	-8.000000E+1	-1.909484E-5
-9.000000E+1	4.342343E-12	3.387567E-11	-9.000000E+1	-4.000442E-5
END
