CV measurement
CV Measurement
:Program Version
13.8.2003 Moll, 4.2008 Fahrer, 6.2011 Gabrysch, 7.2019 Mateu
:start
09/07/2024 12:33:24
:stop
09/07/2024 12:35:45
:elapsed[s]
141.2
:tester
Anton
:environment
Probe Station (28-2-019)
:comment

:temperature[C]
0.0
:ToolID
1102
:GuardRingConnection
1
:Region
0
:Instruments
V source: Keithley 2410
- integration time [ms]: 20.0
- internal averaging: 5
- compliance [A or V]: 4.000E-5
LCR meter: Agilent E4980A
- Frequency: 10000 Hz
- Signal level: 250 mV
- Averaging: 5
:LCR open correction: C[F] , G[S]
5.068E-11, 1.907E-9
:ramp up step [V], delay [s], down step [V], delay[s]
5.0, 0.1, 5.0, 0.5
:set voltage start [V], voltage stop [V], number of steps
-0.0, -30.0, 31
:measured voltage start [V], voltage stop [V], number of steps
-5.0, -90.0, 47
:step mode
from file
:Sample
PPS_TILGAD_6 152 4 C1-V3-1TRB
:Producer
FBK
:Run

:Wafer

:TREC

:Area[cm-2]

:Thickness[um]

:Support_Wafer_Thickness[um]

:Resistivity[ohm.cm]

:Sample_comment
PPS 2x2 TI non-irrad
Pixel 1 0
:Material
p EPI
:Irradiation(Location,Fluence/Dose,Units,Particle,Date)
,,particles/cm2,,08/07/2024
:Annealing_history(time[min],Temp[C],Date)
:legend
V_detector [V]	Capacitance [F]	Conductivity [S]	Bias [V]	Current Power Supply [A]
BEGIN
-5.000000E+0	4.999243E-12	5.141296E-9	-5.000000E+0	-1.656185E-6
-6.000000E+0	4.946843E-12	1.317176E-9	-6.000000E+0	-1.663989E-6
-7.000000E+0	4.901043E-12	8.976257E-10	-7.000000E+0	-1.674283E-6
-8.000000E+0	4.857543E-12	8.679457E-10	-8.000000E+0	-1.685112E-6
-9.000000E+0	4.830143E-12	8.869557E-10	-9.000000E+0	-1.694403E-6
-1.000000E+1	4.811743E-12	9.321957E-10	-1.000000E+1	-1.707033E-6
-1.100000E+1	4.797943E-12	9.888157E-10	-1.100000E+1	-1.721202E-6
-1.200000E+1	4.787843E-12	1.101896E-9	-1.200000E+1	-1.726068E-6
-1.300000E+1	4.779843E-12	1.231876E-9	-1.300000E+1	-1.736625E-6
-1.400000E+1	4.772843E-12	1.333686E-9	-1.400000E+1	-1.747784E-6
-1.500000E+1	4.765143E-12	1.527496E-9	-1.500000E+1	-1.757055E-6
-1.600000E+1	4.758243E-12	1.719516E-9	-1.600000E+1	-1.770096E-6
-1.700000E+1	4.750643E-12	1.974976E-9	-1.700000E+1	-1.780618E-6
-1.800000E+1	4.743243E-12	2.145416E-9	-1.800000E+1	-1.791081E-6
-1.900000E+1	4.735043E-12	2.436856E-9	-1.900000E+1	-1.802887E-6
-2.000000E+1	4.723043E-12	2.709436E-9	-2.000000E+1	-1.810231E-6
-2.050000E+1	4.713443E-12	2.963326E-9	-2.050000E+1	-1.816591E-6
-2.100000E+1	4.705243E-12	3.146596E-9	-2.100000E+1	-1.812215E-6
-2.150000E+1	4.696043E-12	3.218936E-9	-2.150000E+1	-1.855508E-6
-2.200000E+1	4.687143E-12	3.298606E-9	-2.200000E+1	-1.864506E-6
-2.250000E+1	4.677843E-12	3.340126E-9	-2.250000E+1	-1.864535E-6
-2.300000E+1	4.667043E-12	3.232296E-9	-2.300000E+1	-1.871112E-6
-2.350000E+1	4.656243E-12	3.245936E-9	-2.350000E+1	-1.877660E-6
-2.400000E+1	4.643643E-12	3.160286E-9	-2.400000E+1	-1.877162E-6
-2.450000E+1	4.629343E-12	3.047636E-9	-2.450000E+1	-1.889585E-6
-2.500000E+1	4.603443E-12	2.853486E-9	-2.500000E+1	-1.889943E-6
-2.550000E+1	4.544043E-12	2.655776E-9	-2.550000E+1	-1.894346E-6
-2.600000E+1	4.535643E-12	2.516966E-9	-2.600000E+1	-1.904082E-6
-2.650000E+1	4.529243E-12	2.371906E-9	-2.650000E+1	-1.911936E-6
-2.700000E+1	4.524243E-12	2.296496E-9	-2.700000E+1	-1.917171E-6
-2.750000E+1	4.519243E-12	1.967036E-9	-2.750000E+1	-1.923086E-6
-2.800000E+1	4.514843E-12	1.849486E-9	-2.800000E+1	-1.929819E-6
-2.850000E+1	4.510843E-12	1.709206E-9	-2.850000E+1	-1.931259E-6
-2.900000E+1	4.507943E-12	1.622746E-9	-2.900000E+1	-1.942536E-6
-2.950000E+1	4.505543E-12	1.407856E-9	-2.950000E+1	-1.945112E-6
-3.000000E+1	4.501943E-12	1.318996E-9	-3.000000E+1	-1.953045E-6
-3.500000E+1	4.488943E-12	9.030857E-10	-3.500000E+1	-2.005379E-6
-4.000000E+1	4.479143E-12	4.392457E-10	-4.000000E+1	-2.056393E-6
-4.500000E+1	4.472443E-12	2.481257E-10	-4.500000E+1	-2.114487E-6
-5.000000E+1	4.465543E-12	2.584457E-10	-5.000000E+1	-2.156733E-6
-5.500000E+1	4.460843E-12	2.597057E-10	-5.500000E+1	-2.215789E-6
-6.000000E+1	4.477443E-12	1.501916E-9	-6.000000E+1	-2.413075E-6
-6.500000E+1	4.458443E-12	3.718857E-10	-6.500000E+1	-3.218828E-6
-7.000000E+1	4.405143E-12	-1.468343E-10	-7.000000E+1	-6.043988E-6
-7.500000E+1	4.391343E-12	-2.097243E-10	-7.500000E+1	-9.385935E-6
-8.000000E+1	4.378843E-12	-3.514243E-10	-8.000000E+1	-1.645123E-5
-9.000000E+1	4.349043E-12	1.010157E-10	-9.000000E+1	-4.000443E-5
END
