CV measurement
CV Measurement
:Program Version
13.8.2003 Moll, 4.2008 Fahrer, 6.2011 Gabrysch, 7.2019 Mateu
:start
09/07/2024 10:45:18
:stop
09/07/2024 10:47:36
:elapsed[s]
138.1
:tester
Anton
:environment
Probe Station (28-2-019)
:comment

:temperature[C]
20.0
:ToolID
1102
:GuardRingConnection
1
:Region
0
:Instruments
V source: Keithley 2410
- integration time [ms]: 20.0
- internal averaging: 5
- compliance [A or V]: 4.000E-5
LCR meter: Agilent E4980A
- Frequency: 10000 Hz
- Signal level: 250 mV
- Averaging: 5
:LCR open correction: C[F] , G[S]
5.068E-11, 1.907E-9
:ramp up step [V], delay [s], down step [V], delay[s]
5.0, 0.1, 5.0, 0.5
:set voltage start [V], voltage stop [V], number of steps
-0.0, -30.0, 31
:measured voltage start [V], voltage stop [V], number of steps
-5.0, -80.0, 46
:step mode
from file
:Sample
PPS_TILGAD_6 152 4 C1-V3-1TRB
:Producer
FBK
:Run

:Wafer

:TREC

:Area[cm-2]

:Thickness[um]

:Support_Wafer_Thickness[um]

:Resistivity[ohm.cm]

:Sample_comment
PPS 2x2 TI non-irrad
Pixel 0 0
:Material
p EPI
:Irradiation(Location,Fluence/Dose,Units,Particle,Date)
,,particles/cm2,,08/07/2024
:Annealing_history(time[min],Temp[C],Date)
:legend
V_detector [V]	Capacitance [F]	Conductivity [S]	Bias [V]	Current Power Supply [A]
BEGIN
-5.000000E+0	5.065743E-12	1.642162E-8	-5.000000E+0	-6.596253E-6
-6.000000E+0	5.005143E-12	2.857116E-9	-6.000000E+0	-6.611025E-6
-7.000000E+0	4.958443E-12	1.401676E-9	-7.000000E+0	-6.626184E-6
-8.000000E+0	4.911343E-12	1.136686E-9	-8.000000E+0	-6.642716E-6
-9.000000E+0	4.876743E-12	1.052246E-9	-9.000000E+0	-6.658070E-6
-1.000000E+1	4.856843E-12	1.041846E-9	-1.000000E+1	-6.674506E-6
-1.100000E+1	4.842243E-12	1.092646E-9	-1.100000E+1	-6.689025E-6
-1.200000E+1	4.830543E-12	1.156726E-9	-1.200000E+1	-6.705206E-6
-1.300000E+1	4.820843E-12	1.292046E-9	-1.300000E+1	-6.720935E-6
-1.400000E+1	4.813243E-12	1.391996E-9	-1.400000E+1	-6.735763E-6
-1.500000E+1	4.807343E-12	1.529336E-9	-1.500000E+1	-6.751974E-6
-1.600000E+1	4.800843E-12	1.695306E-9	-1.600000E+1	-6.766213E-6
-1.700000E+1	4.794043E-12	1.883536E-9	-1.700000E+1	-6.779670E-6
-1.800000E+1	4.787043E-12	2.092276E-9	-1.800000E+1	-6.797335E-6
-1.900000E+1	4.778243E-12	2.299386E-9	-1.900000E+1	-6.809069E-6
-2.000000E+1	4.770543E-12	2.529066E-9	-2.000000E+1	-6.826202E-6
-2.050000E+1	4.762443E-12	2.724946E-9	-2.050000E+1	-6.832761E-6
-2.100000E+1	4.755843E-12	2.948826E-9	-2.100000E+1	-6.839964E-6
-2.150000E+1	4.748943E-12	3.026626E-9	-2.150000E+1	-6.920709E-6
-2.200000E+1	4.741743E-12	3.185196E-9	-2.200000E+1	-6.922349E-6
-2.250000E+1	4.733443E-12	3.252896E-9	-2.250000E+1	-6.933378E-6
-2.300000E+1	4.724843E-12	3.336856E-9	-2.300000E+1	-6.941988E-6
-2.350000E+1	4.715143E-12	3.374716E-9	-2.350000E+1	-6.948355E-6
-2.400000E+1	4.705243E-12	3.397466E-9	-2.400000E+1	-6.956951E-6
-2.450000E+1	4.692743E-12	3.341956E-9	-2.450000E+1	-6.962316E-6
-2.500000E+1	4.676643E-12	3.322246E-9	-2.500000E+1	-6.970161E-6
-2.550000E+1	4.647543E-12	3.222356E-9	-2.550000E+1	-6.976853E-6
-2.600000E+1	4.589143E-12	3.048556E-9	-2.600000E+1	-6.985254E-6
-2.650000E+1	4.580443E-12	2.963186E-9	-2.650000E+1	-6.989969E-6
-2.700000E+1	4.573643E-12	2.876886E-9	-2.700000E+1	-6.998583E-6
-2.750000E+1	4.566243E-12	2.746806E-9	-2.750000E+1	-7.005406E-6
-2.800000E+1	4.561143E-12	2.562276E-9	-2.800000E+1	-7.014464E-6
-2.850000E+1	4.555443E-12	2.431396E-9	-2.850000E+1	-7.022699E-6
-2.900000E+1	4.551243E-12	2.371166E-9	-2.900000E+1	-7.033369E-6
-2.950000E+1	4.546543E-12	2.151566E-9	-2.950000E+1	-7.036173E-6
-3.000000E+1	4.543043E-12	1.962456E-9	-3.000000E+1	-7.041782E-6
-3.500000E+1	4.525943E-12	1.421106E-9	-3.500000E+1	-7.122485E-6
-4.000000E+1	4.513743E-12	7.106057E-10	-4.000000E+1	-7.200365E-6
-4.500000E+1	4.505943E-12	4.619657E-10	-4.500000E+1	-7.276605E-6
-5.000000E+1	4.499443E-12	3.460257E-10	-5.000000E+1	-7.354623E-6
-5.500000E+1	4.494143E-12	3.524357E-10	-5.500000E+1	-7.428333E-6
-6.000000E+1	4.502743E-12	1.312686E-9	-6.000000E+1	-7.585194E-6
-6.500000E+1	4.481243E-12	5.556557E-10	-6.500000E+1	-8.244388E-6
-7.000000E+1	4.446343E-12	-1.342433E-11	-7.000000E+1	-1.071471E-5
-7.500000E+1	4.425343E-12	-1.086643E-10	-7.500000E+1	-1.374273E-5
-8.000000E+1	4.396743E-12	-4.610643E-10	-8.000000E+1	-1.913258E-5
END
