CV measurement
CV Measurement
:Program Version
13.8.2003 Moll, 4.2008 Fahrer, 6.2011 Gabrysch, 7.2019 Mateu
:start
09/07/2024 13:13:09
:stop
09/07/2024 13:15:31
:elapsed[s]
141.3
:tester
Anton
:environment
Probe Station (28-2-019)
:comment

:temperature[C]
-20.0
:ToolID
1102
:GuardRingConnection
1
:Region
0
:Instruments
V source: Keithley 2410
- integration time [ms]: 20.0
- internal averaging: 5
- compliance [A or V]: 4.000E-5
LCR meter: Agilent E4980A
- Frequency: 10000 Hz
- Signal level: 250 mV
- Averaging: 5
:LCR open correction: C[F] , G[S]
5.068E-11, 1.907E-9
:ramp up step [V], delay [s], down step [V], delay[s]
5.0, 0.1, 5.0, 0.5
:set voltage start [V], voltage stop [V], number of steps
-0.0, -30.0, 31
:measured voltage start [V], voltage stop [V], number of steps
-5.0, -90.0, 47
:step mode
from file
:Sample
PPS_TILGAD_6 152 4 C1-V3-1TRB
:Producer
FBK
:Run

:Wafer

:TREC

:Area[cm-2]

:Thickness[um]

:Support_Wafer_Thickness[um]

:Resistivity[ohm.cm]

:Sample_comment
PPS 2x2 TI non-irrad
Pixel 1 0
:Material
p EPI
:Irradiation(Location,Fluence/Dose,Units,Particle,Date)
,,particles/cm2,,08/07/2024
:Annealing_history(time[min],Temp[C],Date)
:legend
V_detector [V]	Capacitance [F]	Conductivity [S]	Bias [V]	Current Power Supply [A]
BEGIN
-5.000000E+0	4.980343E-12	3.174946E-9	-5.000000E+0	-3.171385E-7
-6.000000E+0	4.928643E-12	9.319857E-10	-6.000000E+0	-3.197553E-7
-7.000000E+0	4.882143E-12	7.135857E-10	-7.000000E+0	-3.285760E-7
-8.000000E+0	4.840043E-12	7.149557E-10	-8.000000E+0	-3.323021E-7
-9.000000E+0	4.813543E-12	6.819657E-10	-9.000000E+0	-3.364864E-7
-1.000000E+1	4.795743E-12	8.229757E-10	-1.000000E+1	-3.440560E-7
-1.100000E+1	4.782943E-12	8.836457E-10	-1.100000E+1	-3.494554E-7
-1.200000E+1	4.773343E-12	1.020256E-9	-1.200000E+1	-3.543855E-7
-1.300000E+1	4.765143E-12	1.149836E-9	-1.300000E+1	-3.624238E-7
-1.400000E+1	4.756843E-12	1.305096E-9	-1.400000E+1	-3.681540E-7
-1.500000E+1	4.749943E-12	1.507066E-9	-1.500000E+1	-3.721989E-7
-1.600000E+1	4.743943E-12	1.723476E-9	-1.600000E+1	-3.807421E-7
-1.700000E+1	4.736343E-12	1.948376E-9	-1.700000E+1	-3.842025E-7
-1.800000E+1	4.728043E-12	2.203476E-9	-1.800000E+1	-3.908122E-7
-1.900000E+1	4.717643E-12	2.493696E-9	-1.900000E+1	-3.970231E-7
-2.000000E+1	4.706143E-12	2.800096E-9	-2.000000E+1	-4.011792E-7
-2.050000E+1	4.694543E-12	3.036566E-9	-2.050000E+1	-4.030550E-7
-2.100000E+1	4.683943E-12	3.156326E-9	-2.100000E+1	-4.070668E-7
-2.150000E+1	4.673743E-12	3.251066E-9	-2.150000E+1	-4.694805E-7
-2.200000E+1	4.664343E-12	3.202426E-9	-2.200000E+1	-4.747429E-7
-2.250000E+1	4.654443E-12	3.144746E-9	-2.250000E+1	-4.747189E-7
-2.300000E+1	4.643843E-12	3.106056E-9	-2.300000E+1	-4.770087E-7
-2.350000E+1	4.633843E-12	2.997906E-9	-2.350000E+1	-4.823081E-7
-2.400000E+1	4.622543E-12	2.836176E-9	-2.400000E+1	-4.881877E-7
-2.450000E+1	4.607243E-12	2.639036E-9	-2.450000E+1	-4.860070E-7
-2.500000E+1	4.580243E-12	2.510976E-9	-2.500000E+1	-4.878547E-7
-2.550000E+1	4.524943E-12	2.257476E-9	-2.550000E+1	-4.934237E-7
-2.600000E+1	4.519143E-12	2.076996E-9	-2.600000E+1	-4.976451E-7
-2.650000E+1	4.513643E-12	1.879336E-9	-2.650000E+1	-4.990933E-7
-2.700000E+1	4.509143E-12	1.716086E-9	-2.700000E+1	-5.053263E-7
-2.750000E+1	4.504743E-12	1.512756E-9	-2.750000E+1	-5.071005E-7
-2.800000E+1	4.501743E-12	1.413856E-9	-2.800000E+1	-5.076154E-7
-2.850000E+1	4.498043E-12	1.258576E-9	-2.850000E+1	-5.138087E-7
-2.900000E+1	4.495643E-12	1.164416E-9	-2.900000E+1	-5.146786E-7
-2.950000E+1	4.493143E-12	1.018526E-9	-2.950000E+1	-5.180257E-7
-3.000000E+1	4.491743E-12	8.780857E-10	-3.000000E+1	-5.212980E-7
-3.500000E+1	4.479943E-12	6.899957E-10	-3.500000E+1	-5.583462E-7
-4.000000E+1	4.469943E-12	2.990557E-10	-4.000000E+1	-5.913311E-7
-4.500000E+1	4.462743E-12	2.197857E-10	-4.500000E+1	-6.226595E-7
-5.000000E+1	4.456943E-12	1.376857E-10	-5.000000E+1	-6.531359E-7
-5.500000E+1	4.452143E-12	1.348857E-10	-5.500000E+1	-6.865113E-7
-6.000000E+1	4.478143E-12	1.483036E-9	-6.000000E+1	-9.299922E-7
-6.500000E+1	4.444643E-12	1.443957E-10	-6.500000E+1	-1.838652E-6
-7.000000E+1	4.394743E-12	-2.680943E-10	-7.000000E+1	-5.036691E-6
-7.500000E+1	4.384743E-12	-2.735643E-10	-7.500000E+1	-8.672444E-6
-8.000000E+1	4.358443E-12	-3.545343E-10	-8.000000E+1	-1.866279E-5
-9.000000E+1	4.338943E-12	-7.288433E-11	-9.000000E+1	-4.000447E-5
END
